Page -688-

10 167Y¥b(17 min.)

1-69
4.55 cm? x 8 mm Ge(Li)
unknown absorber
unknown source distance
70-167-1

10°

10?

Counts/Channel/Second

10°

 

0 200 400 600 800 1000 1200 1400 1600 1800 2000

Channel Number

   

Table of Contents
Page -689-

ER

67¥b(17 min.) Decay Scheme

 

 

 

 

 

 

 

 

 

 

 

17 min.
a=1954 | 'S8Vb
11/2- | 496.90
N
rr
baal
(9/2)-_¥ 383.59
(9/2) + 296.10
Z/2- 292.79 }.95.6%
(9/2)- | 285.86
o
8
o rs
©
5/2- = v 187.61
(7/2)+ ¥ © 2 179,46
ae
72+ ¥ v 8 142.40
5/2+ y 1887
| o
» rr So
& o r
rr r O
3/2+ v a v 10.41
jay

Tm

Table of Contents

 
Page -690-

 

GAMMA-RAY ENERGIES AND INTENSITIES (page 1 of 2)

 

 

 

 

 

 

 

 

 

 

 

 

 

 

 

 

 

 

 

 

 

 

 

 

 

 

 

 

 

 

 

 

 

 

 

 

 

 

 

 

 

 

 

 

 

 

 

 

 

 

 

 

 

 

 

 

 

 

 

 

 

 

 

 

 

 

 

 

 

 

 

 

 

 

 

 

 

 

 

 

 

 

 

 

Nuclide: 167Yb E,, OE, ly, Gly - 1998 ENSDF Data Half Life: 17.5(2) min.
Detector: 4.55 cm? x 8 mm Ge (Li) Method of Production: 168Yb(y,n)

E, (keV) oE, 1, (rel) 1, (%6) oly s E, (keV) oE, 1, (rel) 1, (06) oly s

6.93 0.04 4 398.10 0.20 0.0047 0.0010 | 4

10.41 0.03 0.18 0.06 4 405.57 0.08 0.0144 0.0021 4

25.830 0.020 0.045 0.014 4 415.40 0.20 0.0044 0.0010 | 4

37.050 0.020 0.19 0.07 4 421.40 0.20 0.0041 0.0010 | 4

62.900 0.020 94 49 08 2 441.20 0.10 0.0113 0.0023 [4

90.83 0.06 0.018 0.008 4 446.8 0.3 0.0025 0.0008 | 4

98.24 0.03 0.082 0.009 4 457.00 0.10 0.0068 0.0015 | 4

103.32 0.05 0.017 0.007 4 460.36 0.09 0.027 0.004 4

105.190 0.020 39.0 0.59 0.07 470.65 0.09 0.023 0.003 4

Dr 406.160 0.020 226 14 1 786.60 0.20 0.0068 0.0017. | 4

112.88 0.04 0.0021 0.0006 511.0 4
DI473.320 0.020 100. 55. 3. 1 Ann.[__511.006 0.93 0.04

541.40 0.20 0.0045 0.0012 | 4

D vero 9.070 56 oes os 2 547.50 0.10 0.0125 0.0027 | 4

: - - ~ 561.8 04 0.0029 0.0010 | 4

131.990 0.020 Al 2.79 0.14 i ara 030 D008 o00Ie a

143.460 0.020 2.14 0.10 4 S905 a 00a oot a

150.40 0.08 0.037 0.010 4 0D 04 O04 001s ta

ier se O08 0.088 ore 4 664.90 0.20 0.0090 0.0025 | 4

" : ~ " 672.10 0.20 0.0080 0.0021 | 4

171.75 0.08 0.037 0.010 4 S803 Os 0083 oooTe Ta

174.25 0.07 0.043 0.005 4 6865 OF 00083 00087 Ta

pL_176.23 0.03 36.9 20.5 0.8 1 688.50 0.20 0.012 0.003| 4

177.22 0.03 2.73 0.15 694.5 06 0.0041 0.0027__[ 4

184.10 0.20 0.014 0.008 4 6971 06 0.0041 0002971 4

203.75 0.04 4 707.7 0.4 0.0033 0.0018 | 4

209.920 0.020 0.006 0.004 4 7195 03 0.0039 000121 4

272.10 0.20 0.0027 0.0008 | 4 733.2 03 0.0070 000211 4

280.50 0.20 0.0062 0.0015 | 4 791.50 020 0.0129 0.00257) 4

282.40 0.20 0.0084 0.0017 | 4 $294 03 0.0070 000191 4

290.86 0.07 0.058 0.007 4 846.10 0.20 0.0133 0.0025 [4

321.1 0.5 0.0023 0.0010 | 4 903.30 0.20 0.0068 0.0019 | 4

323.5 05 0.0035 0.0010 | 4 920.32 0.08 0.117 0.019 4

343.29 0.08 0.034 0.004 4 9237 04 0.0062 0.00257 4

351.8 0.4 0.0033 0.0012 [4 9271 08 0.0041 000191 4

354.0 0.4 0.0025 0.0012| 4 933.8 03 0.0053 000211 4

375.90 0.20 0.0068 0.0017 | 4 936-7 03 0.0072 000231 4

379.9 0.3 0.0043 0.0014 | 4 779 03 0.0043 000141 4

387.0 0.4 0.0023 0.0010 [4 998.3 03 0.0043 000141 4

 

 

 

 

 

 

 

 

 

 

 

 

 

 

 

 

Table of Contents

   
Page -691-

 

GAMMA-RAY ENERGIES AND INTENSITIES (page 2 of 2)

 

 

 

 

 

 

 

 

 

 

 

 

 

 

 

 

 

 

 

 

 

 

 

 

 

 

 

 

 

 

 

 

 

 

 

 

 

 

 

 

 

 

 

 

 

 

 

 

 

 

 

 

 

 

 

 

 

 

Nuclide: 167Yb E,, OE,, ly, Gly - 1998 ENSDF Data Half Life: 17.5(2) min.
Detector: 4.55 cm? x 8 mm Ge (Li) Method of Production: 168Yb(y,n)
E, (keV) oE, L, (rel) ly (%) oly s E, (keV) oE, L, (rel) ly (%) oly Ss
1008.6 0.5 0.0037 0.0014 4 1401.9 0.3 0.0029 0.0010 4
1022.90 0.20 0.0109 0.0021 4 1410.7 0.4 0.0031 0.0010 4
1025.9 0.3 0.0045 0.0016 4 1427.8 0.3 0.0031 0.0010 4
1037.07 0.07 0.62 0.08 4 1433.7 0.3 0.0029 0.0010 4
1048.5 0.3 0.012 0.006 4 1438.30 0.10 0.022 0.003 4
1050.30 0.20 0.039 0.010 4 1455.10 0.10 0.023 0.003 4
1068.2 0.4 0.0070 0.0027 4 1464.80 0.20 0.0059 0.0013 4
1070.3 0.6 0.0035 0.0021 4 1481.1 0.3 0.0025 0.0010 4
1110.30 0.10 0.0107 0.0021 4 1487.40 0.20 0.0088 0.0021 4
1139.50 0.10 0.040 0.006 4 1498.2 0.3 0.0041 0.0012 4
1165.5 0.4 0.0031 0.0012 4 1511.90 0.20 4
1213.30 0.20 0.0062 0.0021 4 1511.90 0.20 0.0131 0.0021 4
1217.10 0.20 0.0068 0.0021 4 1517.00 0.20 0.0086 0.0017 4
1234.63 0.07 0.158 0.020 4 1525.7 0.3 0.0021 0.0006 4
1242.00 0.10 0.0166 0.0029 4 1533.1 0.4 0.0016 0.0006 4
1254.5 0.4 0.0027 0.0010 4 1537.5 0.4 0.0031 0.0014 4
1288.10 0.10 0.034 0.005 4 1542.0 0.5 0.0010 0.0006 4
1298.2 0.6 0.0023 0.0010 4 1549.5 0.4 0.0012 0.0006 4
1304.90 0.10 0.033 0.005 4 1570.40 0.20 0.029 0.004 4
1320.90 0.10 0.0125 0.0021 4 1587.10 0.20 0.028 0.004 4
1332.50 0.20 0.0055 0.0015 4 1619.20 0.20 0.0115 0.0017 4
1337.2 0.5 0.0029 0.0014 4 1631.7 0.3 0.0014 0.0006 4
1340.1 0.4 0.0041 0.0014 4 1643.80 0.20 0.0148 0.0019 4
1342.4 0.4 0.0039 0.0014 4 1675.0 0.7 0.0006 0.0004 4
1361.50 0.10 0.018 0.004 4 1680.7 0.6 0.0010 0.0006 4
1366.5 0.7 0.0031 0.0012 4 1693.6 0.5 0.0008 0.0004 4
1370.20 0.10 0.0119 0.0023 4 1793.4 0.6 0.0006 0.0004 4
1384.80 0.20 0.0084 0.0019 4 1807.8 0.5 0.0012 0.0006 4
1393.10 0.20 0.0062 0.0013 4

 

 

 

 

 

 

 

 

 

 

 

 

 

 

 

 

 

Table of Contents

   
